# Best-fit normalized data and profile from VoigtFit
# column 1 : Wavelength
# column 2 : Normalized flux
# column 3 : Normalized error
# column 4 : Best-fit profile
# column 5 : Pixel mask, 1=included, 0=excluded
1389.118   0.9551   0.3871   1.0000   1
1389.148   1.0979   0.3997   1.0000   1
1389.178   0.9159   0.3747   1.0000   1
1389.208   1.0318   0.3961   1.0000   1
1389.238   1.2246   0.4226   1.0000   1
1389.268   1.1635   0.4119   1.0000   1
1389.298   0.9280   0.3785   1.0000   1
1389.328   1.0022   0.3915   1.0000   1
1389.358   1.0990   0.4065   1.0000   1
1389.388   1.3625   0.4407   1.0000   1
1389.417   1.3334   0.4368   1.0000   1
1389.447   0.9930   0.3910   1.0000   1
1389.477   0.9979   0.3858   1.0000   1
1389.507   1.2041   0.4194   1.0000   1
1389.537   1.1414   0.4124   1.0000   1
1389.567   1.3046   0.4327   1.0000   1
1389.597   0.5866   0.3261   1.0000   1
1389.627   0.9857   0.3903   1.0000   1
1389.657   1.1641   0.4143   1.0000   1
1389.687   1.2742   0.4270   1.0000   1
1389.716   1.0226   0.3952   1.0000   1
1389.746   0.6441   0.3164   1.0000   1
1389.776   1.0108   0.3924   1.0000   1
1389.806   0.8501   0.3705   1.0000   1
1389.836   0.9056   0.3753   1.0000   1
1389.866   1.1297   0.4098   1.0000   1
1389.896   1.2510   0.4256   1.0000   1
1389.926   1.0788   0.4036   1.0000   1
1389.956   1.4109   0.4444   1.0000   1
1389.985   1.3478   0.4384   1.0000   1
1390.015   1.7134   0.4774   1.0000   1
1390.045   1.3198   0.4344   1.0000   1
1390.075   1.1032   0.4042   1.0000   1
1390.105   1.2418   0.4242   1.0000   1
1390.135   1.0845   0.4042   1.0000   1
1390.165   1.0979   0.4023   1.0000   1
1390.195   1.2334   0.4236   1.0000   1
1390.225   1.0473   0.3975   1.0000   1
1390.255   1.1305   0.4082   1.0000   1
1390.284   1.3242   0.4345   1.0000   1
1390.314   0.9845   0.3885   1.0000   1
1390.344   0.8652   0.3728   1.0000   1
1390.374   1.0734   0.4006   1.0000   1
1390.404   0.9521   0.3857   1.0000   1
1390.434   0.8410   0.3653   1.0000   1
1390.464   1.2056   0.4192   1.0000   1
1390.494   0.7530   0.3542   1.0000   1
1390.524   0.5792   0.3260   1.0000   1
1390.553   0.8002   0.3632   1.0000   1
1390.583   1.0063   0.3935   1.0000   1
1390.613   1.2417   0.4244   1.0000   1
1390.643   0.7221   0.3480   1.0000   1
1390.673   0.7465   0.3546   1.0000   1
1390.703   0.8075   0.3626   1.0000   1
1390.733   0.8668   0.3682   1.0000   1
1390.763   1.0274   0.3949   1.0000   1
1390.793   1.0021   0.3922   1.0000   1
1390.823   0.7253   0.3492   1.0000   1
1390.852   1.2007   0.4129   1.0000   1
1390.882   0.9748   0.3849   1.0000   1
1390.912   0.8923   0.3745   1.0000   1
1390.942   1.2041   0.4191   1.0000   1
1390.972   1.0589   0.4008   1.0000   1
1391.002   1.1187   0.4062   1.0000   1
1391.032   1.0027   0.3914   1.0000   1
1391.062   1.0595   0.3955   1.0000   1
1391.092   0.9206   0.3811   1.0000   1
1391.121   0.8893   0.3760   1.0000   1
1391.151   1.2884   0.4306   1.0000   1
1391.181   1.1174   0.4071   1.0000   1
1391.211   1.1507   0.4083   1.0000   1
1391.241   1.0869   0.4009   1.0000   1
1391.271   1.0845   0.4037   1.0000   1
1391.301   0.6049   0.3306   1.0000   1
1391.331   0.8302   0.3638   1.0000   1
1391.361   0.6595   0.3409   1.0000   1
1391.391   0.9698   0.3882   1.0000   1
1391.420   0.9468   0.3815   1.0000   1
1391.450   0.9114   0.3770   1.0000   1
1391.480   0.8612   0.3705   1.0000   1
1391.510   1.1759   0.4141   1.0000   1
1391.540   1.1799   0.4168   1.0000   1
1391.570   1.2334   0.4222   1.0000   1
1391.600   0.8338   0.3678   1.0000   1
1391.630   1.0616   0.3977   1.0000   1
1391.660   1.4558   0.4485   1.0000   1
1391.689   1.1779   0.4160   1.0000   1
1391.719   0.9140   0.3785   1.0000   1
1391.749   1.1155   0.4050   1.0000   1
1391.779   1.0033   0.3925   1.0000   1
1391.809   0.8598   0.3691   1.0000   1
1391.839   1.0278   0.3955   1.0000   1
1391.869   1.1490   0.4123   1.0000   1
1391.899   1.3149   0.4338   1.0000   1
1391.929   1.0055   0.3925   1.0000   1
1391.959   0.8027   0.3563   0.9999   1
1391.988   0.7740   0.3582   0.9997   1
1392.018   1.1453   0.4109   0.9994   1
1392.048   0.9181   0.3808   0.9986   1
1392.078   1.1729   0.4152   0.9970   1
1392.108   0.9446   0.3836   0.9936   1
1392.138   0.9446   0.3837   0.9875   1
1392.168   0.8560   0.3716   0.9769   1
1392.198   0.7706   0.3571   0.9593   1
1392.228   0.8827   0.3681   0.9330   1
1392.257   0.9164   0.3746   0.8954   1
1392.287   0.9421   0.3816   0.8466   1
1392.317   0.7984   0.3621   0.7881   1
1392.347   0.7412   0.3516   0.7238   1
1392.377   0.5708   0.3229   0.6591   1
1392.407   0.4820   0.3046   0.6007   1
1392.437   0.5404   0.3147   0.5538   1
1392.467   0.4252   0.2971   0.5229   1
1392.497   0.5095   0.3132   0.5104   1
1392.527   0.7391   0.3464   0.5170   1
1392.556   0.6516   0.3381   0.5430   1
1392.586   0.5100   0.3118   0.5854   1
1392.616   0.7673   0.3560   0.6411   1
1392.646   0.7678   0.3551   0.7044   1
1392.676   0.4254   0.2949   0.7695   1
1392.706   1.0255   0.3955   0.8301   1
1392.736   1.0832   0.4012   0.8822   1
1392.766   1.1132   0.4066   0.9229   1
1392.796   0.6272   0.3338   0.9526   1
1392.826   0.8851   0.3733   0.9725   1
1392.855   0.9991   0.3916   0.9849   1
1392.885   0.7149   0.3474   0.9922   1
1392.915   0.8570   0.3704   0.9962   1
1392.945   0.9423   0.3811   0.9982   1
1392.975   1.0279   0.3942   0.9992   1
1393.005   0.6868   0.3415   0.9997   1
1393.035   1.1153   0.4039   0.9999   1
1393.065   1.2303   0.4195   0.9999   1
1393.095   0.7448   0.3523   1.0000   1
1393.124   1.0877   0.4026   1.0000   1
1393.154   0.9169   0.3772   0.9999   1
1393.184   0.9743   0.3857   0.9998   1
1393.214   0.9166   0.3771   0.9996   1
1393.244   1.1753   0.4027   0.9992   1
1393.274   1.3451   0.4345   0.9984   1
1393.304   1.2029   0.4181   0.9970   1
1393.334   1.0900   0.4029   0.9945   1
1393.364   1.0616   0.3990   0.9902   1
1393.394   1.3178   0.4318   0.9835   1
1393.423   0.8901   0.3684   0.9733   1
1393.453   1.0053   0.3895   0.9587   1
1393.483   1.1463   0.4097   0.9392   1
1393.513   0.7484   0.3517   0.9143   1
1393.543   0.8924   0.3735   0.8846   1
1393.573   1.1180   0.4053   0.8515   1
1393.603   0.8048   0.3599   0.8171   1
1393.633   0.6048   0.3278   0.7842   1
1393.663   0.7763   0.3325   0.7557   1
1393.692   0.7201   0.3466   0.7339   1
1393.722   0.6918   0.3409   0.7214   1
1393.752   0.9462   0.3816   0.7188   1
1393.782   0.6627   0.3325   0.7267   1
1393.812   0.9454   0.3814   0.7443   1
1393.842   0.7746   0.3567   0.7698   1
1393.872   0.7183   0.3438   0.8011   1
1393.902   0.7759   0.3552   0.8351   1
1393.932   1.0010   0.3883   0.8691   1
1393.962   0.6618   0.3380   0.9006   1
1393.991   0.9768   0.3865   0.9280   1
1394.021   0.9707   0.3791   0.9500   1
1394.051   1.0894   0.3997   0.9670   1
1394.081   0.8049   0.3590   0.9791   1
1394.111   1.3673   0.4338   0.9874   1
1394.141   1.2585   0.4238   0.9927   1
1394.171   1.2571   0.4201   0.9960   1
1394.201   0.8554   0.3609   0.9979   1
1394.231   1.1418   0.4077   0.9989   1
1394.261   1.0557   0.3968   0.9995   1
1394.290   0.7122   0.3437   0.9998   1
1394.320   0.7740   0.3555   0.9999   1
1394.350   0.8031   0.3584   0.9999   1
1394.380   0.6250   0.3191   1.0000   1
1394.410   0.7884   0.3673   1.0000   1
1394.440   0.8857   0.3876   1.0000   1
1394.470   1.4910   0.4591   1.0000   1
1394.500   0.9804   0.3916   1.0000   1
1394.530   1.2805   0.4354   1.0000   1
1394.559   1.1392   0.4163   1.0000   1
1394.589   1.0132   0.3938   1.0000   1
1394.619   0.7763   0.3613   1.0000   1
1394.649   1.0190   0.3997   1.0000   1
1394.679   1.4018   0.4575   1.0000   1
1394.709   1.0711   0.4086   1.0000   1
1394.739   1.0807   0.4080   1.0000   1
1394.769   0.9797   0.3903   1.0000   1
1394.799   0.7155   0.3473   1.0000   1
1394.828   0.7465   0.3516   1.0000   1
1394.858   0.8542   0.3686   1.0000   1
1394.888   0.9997   0.3881   1.0000   1
1394.918   1.2452   0.4215   1.0000   1
1394.948   0.9930   0.3875   1.0000   1
1394.978   0.5996   0.3260   1.0000   1
1395.008   1.0812   0.3963   1.0000   1
1395.038   0.9708   0.3826   1.0000   1
1395.068   1.3809   0.4378   1.0000   1
1395.098   1.0848   0.4008   1.0000   1
1395.127   1.4227   0.4432   1.0000   1
1395.157   1.1434   0.4087   1.0000   1
1395.187   1.3859   0.4391   1.0000   1
1395.217   1.0483   0.3955   1.0000   1
1395.247   1.1193   0.4008   1.0000   1
1395.277   1.1925   0.4147   1.0000   1
1395.307   0.9422   0.3778   1.0000   1
1395.337   0.9485   0.3748   1.0000   1
1395.367   1.2708   0.4152   1.0000   1
1395.397   1.1668   0.4104   1.0000   1
1395.426   0.8902   0.3716   1.0000   1
1395.456   1.2889   0.4268   1.0000   1
1395.486   1.1012   0.4015   1.0000   1
1395.516   1.1174   0.4024   1.0000   1
1395.546   1.2870   0.4265   1.0000   1
1395.576   1.1005   0.3999   1.0000   1
1395.606   1.1972   0.4158   1.0000   1
1395.636   1.0650   0.3992   1.0000   1
1395.666   0.8304   0.3628   1.0000   1
1395.695   1.2803   0.4383   1.0000   1
1395.725   1.1728   0.4137   1.0000   1
1395.755   1.0615   0.4073   1.0000   1
1395.785   1.0258   0.3955   1.0000   1
1395.815   0.5571   0.3247   1.0000   1
1395.845   1.0718   0.4130   1.0000   1
1395.875   1.2295   0.4388   1.0000   1
1395.905   1.0518   0.4115   1.0000   1
1395.935   0.8799   0.3820   1.0000   1
1395.965   1.3106   0.4438   1.0000   1
1395.994   1.0732   0.4142   1.0000   1
1396.024   1.0284   0.4002   1.0000   1
1396.054   1.2344   0.4316   1.0000   1
1396.084   1.3263   0.4360   1.0000   1
1396.114   1.0845   0.4007   1.0000   1
1396.144   1.1383   0.4050   1.0000   1
1396.174   1.2166   0.4168   1.0000   1
1396.204   0.8337   0.3632   1.0000   1
1396.234   1.1398   0.4065   1.0000   1
1396.263   1.5595   0.4570   1.0000   1
1396.293   0.9401   0.3780   1.0000   1
1396.323   1.0508   0.3926   1.0000   1
1396.353   0.8468   0.3648   1.0000   1
1396.383   0.8060   0.3550   1.0000   1
1396.413   1.2109   0.4133   1.0000   1
1396.443   0.9152   0.3744   1.0000   1
1396.473   1.1334   0.4043   1.0000   1
1396.503   0.8378   0.3621   1.0000   1
1396.533   1.0056   0.3864   1.0000   1
1396.562   0.8872   0.3713   1.0000   1
1396.592   0.8342   0.3621   1.0000   1
1396.622   0.8988   0.3720   1.0000   1
1396.652   1.2274   0.4164   1.0000   1
1396.682   1.1093   0.4011   1.0000   1
1396.712   1.1670   0.4055   1.0000   1
1396.742   0.8208   0.3610   1.0000   1
1396.772   1.0820   0.3975   1.0000   1
1396.802   0.9700   0.3838   1.0000   1
1396.832   1.0448   0.3884   1.0000   1
1396.861   1.1299   0.4012   1.0000   1
1396.891   0.8825   0.3692   1.0000   1
1396.921   1.1617   0.4079   1.0000   1
1396.951   0.9767   0.3835   1.0000   1
1396.981   0.9617   0.3803   1.0000   1
1397.011   1.0327   0.3921   1.0000   1
1397.041   1.3229   0.4266   1.0000   1
1397.071   0.8729   0.3643   1.0000   1
1397.101   0.9109   0.3732   1.0000   1
1397.130   0.7848   0.3516   1.0000   1
1397.160   1.2482   0.4199   1.0000   1
1397.190   0.9370   0.3779   1.0000   1
1397.220   0.8624   0.3654   1.0000   1
1397.250   1.2095   0.4152   1.0000   1
1397.280   1.2240   0.4151   1.0000   1
1397.310   0.9869   0.3838   1.0000   1
1397.340   1.0149   0.3851   1.0000   1
1397.370   0.8663   0.3607   1.0000   1
1397.399   0.9930   0.3865   1.0000   1
1397.429   0.8262   0.3618   1.0000   1
1397.459   0.8640   0.3666   1.0000   1
1397.489   1.2699   0.4227   1.0000   1
1397.519   1.1165   0.4019   1.0000   1
1397.549   1.1658   0.4067   1.0000   1
1397.579   1.5041   0.4465   1.0000   1
1397.609   1.2638   0.4220   1.0000   1
1397.639   0.9495   0.3766   1.0000   1
1397.669   1.0041   0.3858   1.0000   1
1397.698   1.2228   0.4158   1.0000   1
1397.728   1.0113   0.3884   1.0000   1
1397.758   0.8295   0.3610   1.0000   1
1397.788   0.9418   0.3747   1.0000   1
1397.818   1.0289   0.3866   1.0000   1
1397.848   1.0202   0.3858   1.0000   1
1397.878   0.9812   0.3828   1.0000   1
1397.908   0.9626   0.3812   1.0000   1
1397.938   1.0230   0.3852   1.0000   1
1397.967   1.2466   0.4192   1.0000   1
1397.997   0.8532   0.3621   1.0000   1
1398.027   0.7839   0.3541   1.0000   1
1398.057   1.4061   0.4388   1.0000   1
1398.087   1.3727   0.4351   1.0000   1
1398.117   1.0442   0.3871   1.0000   1
1398.147   0.8687   0.3669   1.0000   1
1398.177   0.5905   0.3213   1.0000   1
1398.207   1.1081   0.4012   1.0000   1
1398.237   0.8819   0.3665   1.0000   1
1398.266   1.1812   0.4112   1.0000   1
1398.296   0.9983   0.3855   1.0000   1
1398.326   1.0296   0.3901   1.0000   1
1398.356   0.6930   0.3408   1.0000   1
1398.386   0.8994   0.3685   1.0000   1
1398.416   0.8877   0.3688   1.0000   1
1398.446   1.2545   0.4208   1.0000   1
1398.476   1.1423   0.4042   1.0000   1
1398.506   1.1818   0.4114   1.0000   1
1398.536   0.7651   0.3514   1.0000   1
1398.565   1.0151   0.3883   1.0000   1
1398.595   1.0514   0.3915   1.0000   1
1398.625   0.8987   0.3714   1.0000   1
1398.655   1.1634   0.4080   1.0000   1
1398.685   1.0945   0.3986   1.0000   1
1398.715   0.7896   0.3568   1.0000   1
1398.745   0.8822   0.3708   1.0000   1
1398.775   0.8397   0.3630   1.0000   1
1398.805   0.6117   0.3268   1.0000   1
1398.834   0.8081   0.3560   1.0000   1
1398.864   1.0787   0.3967   1.0000   1
1398.894   1.0615   0.3899   1.0000   1
1398.924   0.9280   0.3735   1.0000   1
1398.954   0.7399   0.3467   1.0000   1
1398.984   1.0629   0.3952   1.0000   1
1399.014   0.8153   0.3594   1.0000   1
1399.044   0.9901   0.3860   1.0000   1
1399.074   0.8346   0.3629   1.0000   1
1399.104   0.8580   0.3623   1.0000   1
1399.133   0.9110   0.3747   1.0000   1
1399.163   0.8967   0.3693   1.0000   1
1399.193   0.8293   0.3607   1.0000   1
1399.223   0.9577   0.3764   1.0000   1
1399.253   0.8582   0.3623   1.0000   1
1399.283   0.6521   0.3320   1.0000   1
1399.313   0.5929   0.3221   1.0000   1
1399.343   0.6378   0.3250   1.0000   1
1399.373   0.6145   0.3078   1.0000   1
1399.402   0.6966   0.3379   1.0000   1
1399.432   1.2987   0.4258   1.0000   1
1399.462   0.7816   0.3531   1.0000   1
1399.492   0.9449   0.3783   1.0000   1
1399.522   0.7974   0.3426   1.0000   1
1399.552   0.8308   0.3609   1.0000   1
1399.582   0.4759   0.2866   1.0000   1
1399.612   0.9742   0.3792   1.0000   1
1399.642   1.1042   0.4009   1.0000   1
1399.672   1.3158   0.4278   1.0000   1
1399.701   0.8273   0.3614   1.0000   1
1399.731   1.0848   0.3967   1.0000   1
1399.761   1.2462   0.4153   1.0000   1
1399.791   0.6799   0.3384   1.0000   1
1399.821   1.0085   0.3844   1.0000   1
1399.851   1.0987   0.3977   1.0000   1
1399.881   1.3657   0.4252   1.0000   1
1399.911   0.8349   0.3630   1.0000   1
1399.941   0.8288   0.3616   1.0000   1
1399.970   0.9343   0.3774   1.0000   1
1400.000   0.9836   0.3834   1.0000   1
1400.030   0.8994   0.3685   1.0000   1
1400.060   0.8580   0.3655   1.0000   1
1400.090   1.0870   0.3973   1.0000   1
1400.120   1.2483   0.4177   1.0000   1
1400.150   1.0811   0.3970   1.0000   1
1400.180   1.1244   0.4025   1.0000   1
1400.210   0.9918   0.3808   1.0000   1
1400.240   1.0738   0.3928   1.0000   1
1400.269   1.1573   0.4041   1.0000   1
1400.299   1.0965   0.3978   1.0000   1
1400.329   1.2638   0.4162   1.0000   1
1400.359   0.9868   0.3828   1.0000   1
1400.389   0.7864   0.3536   1.0000   1
1400.419   1.0706   0.3956   1.0000   1
1400.449   0.8019   0.3572   1.0000   1
1400.479   1.2446   0.4126   1.0000   1
1400.509   0.9206   0.3750   1.0000   1
1400.538   1.0917   0.3964   1.0000   1
1400.568   1.5400   0.4542   1.0000   1
1400.598   0.8864   0.3666   1.0000   1
1400.628   1.2243   0.4120   1.0000   1
1400.658   1.2396   0.4178   1.0000   1
1400.688   1.1112   0.3951   1.0000   1
1400.718   0.9304   0.3742   1.0000   1
1400.748   1.2264   0.4165   1.0000   1
1400.778   1.0873   0.3947   1.0000   1
1400.808   0.9434   0.3766   1.0000   1
1400.837   0.7913   0.3553   1.0000   1
1400.867   1.2479   0.4177   1.0000   1
1400.897   1.1123   0.3996   1.0000   1
1400.927   0.8609   0.3629   1.0000   1
1400.957   1.2015   0.4076   1.0000   1
1400.987   1.2924   0.4229   0.9999   1
1401.017   1.2197   0.4128   0.9997   1
1401.047   1.0041   0.3857   0.9994   1
1401.077   1.2875   0.4196   0.9987   1
1401.107   1.1257   0.4004   0.9973   1
1401.136   1.0024   0.3810   0.9946   1
1401.166   0.9658   0.3758   0.9899   1
1401.196   1.2574   0.4189   0.9819   1
1401.226   0.8256   0.3607   0.9696   1
1401.256   1.2941   0.4232   0.9516   1
1401.286   1.0553   0.3930   0.9273   1
1401.316   0.8218   0.3535   0.8966   1
1401.346   0.9767   0.3811   0.8609   1
1401.376   1.0762   0.3960   0.8229   1
1401.405   0.7547   0.3463   0.7860   1
1401.435   0.8937   0.3672   0.7541   1
1401.465   0.7996   0.3359   0.7310   1
1401.495   0.6419   0.3294   0.7192   1
1401.525   0.7301   0.3419   0.7200   1
1401.555   0.4682   0.2779   0.7336   1
1401.585   0.9975   0.3800   0.7581   1
1401.615   0.7201   0.3421   0.7910   1
1401.645   1.0377   0.3870   0.8283   1
1401.675   0.8591   0.3633   0.8662   1
1401.704   1.0421   0.3910   0.9013   1
1401.734   1.0463   0.3919   0.9311   1
1401.764   1.0374   0.3881   0.9545   1
1401.794   1.0094   0.3851   0.9717   1
1401.824   1.0570   0.3885   0.9833   1
1401.854   0.8046   0.3542   0.9907   1
1401.884   0.8426   0.3615   0.9951   1
1401.914   1.1222   0.3998   0.9975   1
1401.944   1.3263   0.4259   0.9988   1
1401.973   1.0046   0.3853   0.9995   1
1402.003   0.9212   0.3707   0.9998   1
1402.033   1.0138   0.3865   0.9999   1
1402.063   0.9207   0.3693   1.0000   1
1402.093   0.7618   0.3464   1.0000   1
1402.123   1.1209   0.4014   1.0000   1
1402.153   0.9298   0.3745   1.0000   1
1402.183   1.1612   0.4055   0.9999   1
1402.213   1.1559   0.4057   0.9999   1
1402.243   1.0018   0.3854   0.9997   1
1402.272   0.9559   0.3775   0.9994   1
1402.302   1.1062   0.3970   0.9989   1
1402.332   1.2577   0.4174   0.9979   1
1402.362   1.3428   0.4285   0.9963   1
1402.392   1.2974   0.4231   0.9936   1
1402.422   0.9729   0.3562   0.9894   1
1402.452   1.0354   0.3889   0.9833   1
1402.482   1.0371   0.3902   0.9747   1
1402.512   0.7965   0.3555   0.9634   1
1402.541   1.1031   0.3973   0.9493   1
1402.571   0.9051   0.3721   0.9329   1
1402.601   0.7625   0.3500   0.9147   1
1402.631   0.9377   0.3763   0.8963   1
1402.661   0.5908   0.3219   0.8791   1
1402.691   0.7470   0.3513   0.8648   1
1402.721   0.9977   0.3879   0.8547   1
1402.751   1.0499   0.3959   0.8501   1
1402.781   0.9385   0.3851   0.8513   1
1402.811   0.9288   0.3813   0.8584   1
1402.840   0.7608   0.3550   0.8704   1
1402.870   0.9936   0.3947   0.8861   1
1402.900   0.8204   0.3665   0.9040   1
1402.930   1.0865   0.4036   0.9225   1
1402.960   0.7023   0.3476   0.9400   1
1402.990   0.8201   0.3702   0.9556   1
1403.020   1.0398   0.3923   0.9685   1
1403.050   1.1721   0.4121   0.9787   1
1403.080   0.8861   0.3736   0.9861   1
1403.109   0.9457   0.3731   0.9914   1
1403.139   0.9438   0.3776   0.9949   1
1403.169   1.0300   0.3886   0.9971   1
1403.199   1.1765   0.4085   0.9984   1
1403.229   1.0138   0.3864   0.9992   1
1403.259   0.8183   0.3560   0.9996   1
1403.289   0.9398   0.3729   0.9998   1
1403.319   0.9737   0.3804   0.9999   1
1403.349   1.1309   0.4009   1.0000   1
1403.379   0.8716   0.3595   1.0000   1
1403.408   1.0905   0.3974   1.0000   1
1403.438   1.0815   0.3928   1.0000   1
1403.468   0.9581   0.3761   1.0000   1
1403.498   0.9456   0.3770   1.0000   1
1403.528   1.0925   0.3954   1.0000   1
1403.558   0.8469   0.3626   1.0000   1
1403.588   0.9355   0.3723   1.0000   1
1403.618   1.0815   0.3944   1.0000   1
1403.648   1.0645   0.3931   1.0000   1
1403.678   0.9586   0.3788   1.0000   1
1403.707   0.9308   0.3748   1.0000   1
1403.737   1.1308   0.3983   1.0000   1
1403.767   0.8295   0.3545   1.0000   1
1403.797   1.1240   0.3998   1.0000   1
1403.827   0.8887   0.3658   1.0000   1
1403.857   1.0109   0.3859   1.0000   1
1403.887   1.1337   0.4015   1.0000   1
1403.917   1.1339   0.4008   1.0000   1
1403.947   1.0205   0.3864   1.0000   1
1403.976   0.7063   0.3399   1.0000   1
1404.006   0.5280   0.2938   1.0000   1
1404.036   1.1329   0.4097   1.0000   1
1404.066   1.0438   0.4027   1.0000   1
1404.096   1.4068   0.4517   1.0000   1
1404.126   0.9460   0.3867   1.0000   1
1404.156   0.9151   0.3811   1.0000   1
1404.186   1.0630   0.4071   1.0000   1
1404.216   1.1404   0.4173   1.0000   1
1404.245   0.8385   0.3733   1.0000   1
1404.275   1.1735   0.4216   1.0000   1
1404.305   1.0429   0.4033   1.0000   1
1404.335   1.0702   0.4086   1.0000   1
1404.365   1.1629   0.4189   1.0000   1
1404.395   1.3001   0.4326   1.0000   1
1404.425   1.0645   0.4019   1.0000   1
1404.455   0.8733   0.3706   1.0000   1
1404.485   1.1693   0.4038   1.0000   1
1404.515   0.8777   0.3663   1.0000   1
1404.544   1.2473   0.4166   1.0000   1
1404.574   0.8056   0.3540   1.0000   1
1404.604   0.8191   0.3554   1.0000   1
1404.634   0.9721   0.3787   1.0000   1
1404.664   1.0964   0.3972   1.0000   1
1404.694   1.0869   0.3923   1.0000   1
1404.724   0.9770   0.3770   1.0000   1
1404.754   0.9989   0.3816   1.0000   1
1404.784   0.8661   0.3639   1.0000   1
1404.814   0.8791   0.3648   1.0000   1
1404.843   0.7864   0.3284   1.0000   1
1404.873   1.1882   0.4079   1.0000   1
1404.903   1.4352   0.4367   1.0000   1
1404.933   1.0035   0.3808   1.0000   1
1404.963   1.0626   0.3915   1.0000   1
1404.993   0.7922   0.3516   1.0000   1
1405.023   0.6253   0.3230   1.0000   1
1405.053   1.1328   0.4015   1.0000   1
1405.083   0.9172   0.3709   1.0000   1
1405.112   1.1867   0.4077   1.0000   1
1405.142   1.2541   0.4135   1.0000   1
1405.172   0.9606   0.3757   1.0000   1
1405.202   1.1818   0.4060   1.0000   1
1405.232   0.9156   0.3709   1.0000   1
1405.262   0.9828   0.3814   1.0000   1
1405.292   1.1814   0.4061   1.0000   1
1405.322   0.9919   0.3765   1.0000   1
1405.352   1.0411   0.3890   1.0000   1
1405.382   1.1430   0.4011   1.0000   1
1405.411   0.9463   0.3739   1.0000   1
1405.441   1.3717   0.4315   1.0000   1
1405.471   1.2620   0.4172   1.0000   1
1405.501   0.9488   0.3774   1.0000   1
1405.531   0.9754   0.3808   1.0000   1
1405.561   0.9530   0.3780   1.0000   1
1405.591   0.8142   0.3506   1.0000   1
1405.621   1.1691   0.4061   1.0000   1
1405.651   0.9271   0.3706   1.0000   1
1405.680   0.8898   0.3674   1.0000   1
1405.710   0.9681   0.3522   1.0000   1
1405.740   1.2931   0.4204   1.0000   1
1405.770   0.9816   0.3808   1.0000   1
1405.800   1.2998   0.4219   1.0000   1
1405.830   1.3714   0.4316   1.0000   1
1405.860   0.7935   0.3489   1.0000   1
1405.890   1.0436   0.3857   1.0000   1
1405.920   1.3301   0.4218   1.0000   1
1405.950   0.7380   0.3436   1.0000   1
1405.979   0.7312   0.3396   1.0000   1
1406.009   1.2111   0.4068   1.0000   1
1406.039   0.9329   0.3742   1.0000   1
1406.069   1.0519   0.3901   1.0000   1
1406.099   0.9895   0.3825   1.0000   1
1406.129   1.0952   0.3948   1.0000   1
1406.159   1.1232   0.3982   1.0000   1
1406.189   0.8507   0.3619   1.0000   1
1406.219   0.8793   0.3649   1.0000   1
1406.248   1.2002   0.4094   1.0000   1
1406.278   1.3672   0.4296   1.0000   1
1406.308   1.0959   0.3956   1.0000   1
1406.338   1.5194   0.4474   1.0000   1
1406.368   1.0552   0.3904   1.0000   1
1406.398   0.8808   0.3651   1.0000   1
1406.428   0.9505   0.3724   1.0000   1
1406.458   1.1447   0.4025   1.0000   1
1406.488   1.2079   0.4092   1.0000   1
1406.518   1.0051   0.3805   1.0000   1
1406.547   0.9362   0.3734   1.0000   1
1406.577   1.0613   0.3901   1.0000   1
1406.607   0.8746   0.3643   1.0000   1
1406.637   1.0817   0.3920   1.0000   1
1406.667   0.7630   0.3454   1.0000   1
1406.697   1.0266   0.3856   1.0000   1
1406.727   1.0195   0.3835   1.0000   1
1406.757   0.7582   0.3455   1.0000   1
1406.787   0.7293   0.3362   1.0000   1
1406.816   1.2284   0.4132   1.0000   1
1406.846   0.8596   0.3616   1.0000   1
1406.876   1.1649   0.4035   1.0000   1
1406.906   0.9856   0.3802   1.0000   1
1406.936   1.1427   0.4015   1.0000   1
1406.966   0.8662   0.3606   1.0000   1
1406.996   1.0961   0.3961   1.0000   1
1407.026   1.3381   0.4257   1.0000   1
1407.056   1.0807   0.3941   1.0000   1
1407.086   1.1683   0.4047   1.0000   1
1407.115   1.0992   0.3955   1.0000   1
1407.145   0.9894   0.3817   1.0000   1
1407.175   1.2196   0.4100   1.0000   1
1407.205   0.8567   0.3610   1.0000   1
1407.235   1.0469   0.3884   1.0000   1
1407.265   1.0796   0.3938   1.0000   1
1407.295   1.0405   0.3863   1.0000   1
1407.325   0.9059   0.3655   1.0000   1
1407.355   1.0162   0.3828   1.0000   1
1407.385   0.8363   0.3590   1.0000   1
1407.414   0.9195   0.3699   1.0000   1
1407.444   1.0860   0.3925   1.0000   1
