# Best-fit normalized data and profile from VoigtFit
# column 1 : Wavelength
# column 2 : Normalized flux
# column 3 : Normalized error
# column 4 : Best-fit profile
# column 5 : Pixel mask, 1=included, 0=excluded
1390.048   0.8404   0.1829   1.0000   1
1390.078   0.9525   0.1914   1.0000   1
1390.108   0.8291   0.1816   1.0000   1
1390.138   1.0384   0.1994   1.0000   1
1390.168   1.0008   0.1965   1.0000   1
1390.198   0.8900   0.1868   1.0000   1
1390.227   0.8225   0.1794   1.0000   1
1390.257   0.9842   0.1927   1.0000   1
1390.287   0.8590   0.1827   1.0000   1
1390.317   1.1158   0.2057   1.0000   1
1390.347   1.0319   0.1991   1.0000   1
1390.377   1.0403   0.1992   1.0000   1
1390.407   1.0304   0.1982   1.0000   1
1390.436   0.8916   0.1865   1.0000   1
1390.466   1.0677   0.2009   1.0000   1
1390.496   1.0889   0.2028   1.0000   1
1390.526   0.8227   0.1808   1.0000   1
1390.556   0.7648   0.1760   1.0000   1
1390.586   1.1707   0.2095   1.0000   1
1390.616   0.8443   0.1825   1.0000   1
1390.645   0.9493   0.1921   1.0000   1
1390.675   0.9825   0.1948   1.0000   1
1390.705   0.9505   0.1922   1.0000   1
1390.735   0.9844   0.1946   1.0000   1
1390.765   1.0106   0.1968   1.0000   1
1390.795   0.9938   0.1950   1.0000   1
1390.825   1.0223   0.1977   1.0000   1
1390.854   0.9929   0.1958   1.0000   1
1390.884   1.0455   0.2003   1.0000   1
1390.914   1.0098   0.1967   1.0000   1
1390.944   0.9636   0.1912   1.0000   1
1390.974   1.0014   0.1952   1.0000   1
1391.004   1.0266   0.1981   1.0000   1
1391.033   1.0079   0.1971   1.0000   1
1391.063   1.1786   0.2100   1.0000   1
1391.093   1.1244   0.2062   1.0000   1
1391.123   1.0554   0.2001   1.0000   1
1391.153   1.0390   0.1994   1.0000   1
1391.183   1.0754   0.2023   1.0000   1
1391.213   1.0780   0.2022   1.0000   1
1391.242   0.9596   0.1920   1.0000   1
1391.272   1.1596   0.2083   1.0000   1
1391.302   1.0147   0.1974   1.0000   1
1391.332   1.0279   0.1972   1.0000   1
1391.362   0.9587   0.1927   1.0000   1
1391.392   0.8548   0.1852   1.0000   1
1391.422   0.9132   0.1898   1.0000   1
1391.451   1.0925   0.2062   1.0000   1
1391.481   1.0401   0.2022   1.0000   1
1391.511   1.0914   0.2062   1.0000   1
1391.541   1.1150   0.2095   1.0000   1
1391.571   1.0567   0.2039   1.0000   1
1391.601   0.9046   0.1909   1.0000   1
1391.631   1.0318   0.2008   1.0000   1
1391.660   1.0613   0.2025   1.0000   1
1391.690   1.0455   0.2006   1.0000   1
1391.720   1.0318   0.2004   1.0000   1
1391.750   0.9988   0.1991   1.0000   1
1391.780   0.9538   0.1943   1.0000   1
1391.810   1.0272   0.1997   1.0000   1
1391.839   1.1158   0.2061   1.0000   1
1391.869   1.0515   0.1989   1.0000   1
1391.899   1.0300   0.1981   1.0000   1
1391.929   0.8518   0.1838   1.0000   1
1391.959   0.9659   0.1934   1.0000   1
1391.989   1.0660   0.2012   1.0000   1
1392.019   1.1287   0.2045   1.0000   1
1392.048   1.0297   0.1989   1.0000   1
1392.078   1.1082   0.2046   1.0000   1
1392.108   1.1813   0.2100   1.0000   1
1392.138   1.0675   0.2022   1.0000   1
1392.168   1.0570   0.2012   1.0000   1
1392.198   1.0044   0.1967   1.0000   1
1392.228   1.2158   0.2126   1.0000   1
1392.257   1.3646   0.2239   1.0000   1
1392.287   0.9318   0.1907   1.0000   1
1392.317   0.8147   0.1793   1.0000   1
1392.347   1.0905   0.2038   1.0000   1
1392.377   1.1858   0.2101   1.0000   1
1392.407   1.1088   0.2015   1.0000   1
1392.437   1.1988   0.2115   1.0000   1
1392.466   1.0434   0.1991   1.0000   1
1392.496   1.0137   0.1971   1.0000   1
1392.526   1.0123   0.1974   1.0000   1
1392.556   1.0408   0.1999   1.0000   1
1392.586   1.0167   0.1975   1.0000   1
1392.616   0.9572   0.1932   1.0000   1
1392.645   0.8942   0.1871   1.0000   1
1392.675   1.0526   0.2013   1.0000   1
1392.705   1.0178   0.1974   1.0000   1
1392.735   1.0722   0.2022   1.0000   1
1392.765   1.0578   0.2012   1.0000   1
1392.795   1.0092   0.1969   1.0000   1
1392.825   1.0342   0.2004   1.0000   1
1392.854   0.8951   0.1892   1.0000   1
1392.884   1.0320   0.2014   1.0000   1
1392.914   1.0189   0.2002   1.0000   1
1392.944   1.0747   0.2054   1.0000   1
1392.974   1.0090   0.2001   1.0000   1
1393.004   1.0697   0.2039   1.0000   1
1393.034   0.8484   0.1843   1.0000   1
1393.063   1.0536   0.2042   1.0000   1
1393.093   0.9413   0.1959   1.0000   1
1393.123   1.1093   0.2095   1.0000   1
1393.153   0.9684   0.1982   1.0000   1
1393.183   0.7911   0.1830   1.0000   1
1393.213   1.1175   0.2087   1.0000   1
1393.243   1.0124   0.1994   1.0000   1
1393.272   0.7382   0.1711   1.0000   1
1393.302   1.0952   0.2045   1.0000   1
1393.332   0.9851   0.1954   0.9999   1
1393.362   1.1165   0.2087   0.9998   1
1393.392   0.9180   0.1909   0.9993   1
1393.422   1.0274   0.1998   0.9983   1
1393.451   0.9321   0.1912   0.9959   1
1393.481   0.9272   0.1900   0.9910   1
1393.511   1.0342   0.1975   0.9819   1
1393.541   1.0201   0.1975   0.9665   1
1393.571   0.8579   0.1841   0.9432   1
1393.601   1.0063   0.1973   0.9117   1
1393.631   1.0212   0.1987   0.8736   1
1393.660   0.8150   0.1804   0.8337   1
1393.690   0.7044   0.1666   0.7980   1
1393.720   0.8958   0.1875   0.7723   1
1393.750   0.7005   0.1696   0.7606   1
1393.780   0.6429   0.1643   0.7633   1
1393.810   0.8394   0.1832   0.7770   1
1393.840   0.8552   0.1846   0.7948   1
1393.869   0.7564   0.1750   0.8081   1
1393.899   0.8583   0.1850   0.8096   1
1393.929   0.8390   0.1837   0.7956   1
1393.959   0.7647   0.1748   0.7671   1
1393.989   0.6791   0.1707   0.7293   1
1394.019   0.6869   0.1661   0.6893   1
1394.048   0.6288   0.1643   0.6551   1
1394.078   0.6496   0.1660   0.6324   1
1394.108   0.6992   0.1698   0.6250   1
1394.138   0.6192   0.1641   0.6341   1
1394.168   0.6562   0.1684   0.6592   1
1394.198   0.6246   0.1647   0.6977   1
1394.228   0.7777   0.1797   0.7454   1
1394.257   0.8930   0.1904   0.7970   1
1394.287   0.7973   0.1803   0.8469   1
1394.317   0.9125   0.1904   0.8885   1
1394.347   0.8567   0.1855   0.9097   1
1394.377   0.8340   0.1828   0.8952   1
1394.407   0.8984   0.1880   0.8599   1
1394.437   0.7288   0.1734   0.8608   1
1394.466   0.9595   0.1925   0.9154   1
1394.496   0.9902   0.1950   0.9687   1
1394.526   1.0797   0.2015   0.9925   1
1394.556   1.1978   0.2090   0.9985   1
1394.586   0.9733   0.1940   0.9996   1
1394.616   1.0588   0.2000   0.9999   1
1394.646   0.9694   0.1943   0.9999   1
1394.675   1.1203   0.2061   1.0000   1
1394.705   0.8480   0.1840   1.0000   1
1394.735   1.1624   0.2084   1.0000   1
1394.765   1.0730   0.2027   1.0000   1
1394.795   0.9294   0.1908   1.0000   1
1394.825   0.9480   0.1919   1.0000   1
1394.854   1.0108   0.1974   1.0000   1
1394.884   1.0858   0.2006   1.0000   1
1394.914   1.0737   0.2015   1.0000   1
1394.944   0.9633   0.1936   1.0000   1
1394.974   0.9175   0.1887   1.0000   1
1395.004   0.8814   0.1868   1.0000   1
1395.034   0.8990   0.1869   1.0000   1
1395.063   0.9121   0.1900   1.0000   1
1395.093   0.9122   0.1905   1.0000   1
1395.123   0.9406   0.1933   1.0000   1
1395.153   0.8686   0.1852   1.0000   1
1395.183   1.0023   0.1972   1.0000   1
1395.213   0.9464   0.1935   1.0000   1
1395.243   0.9931   0.1987   1.0000   1
1395.272   1.0576   0.2037   1.0000   1
1395.302   1.1635   0.2129   1.0000   1
1395.332   0.9833   0.1982   1.0000   1
1395.362   0.9566   0.1945   1.0000   1
1395.392   1.0211   0.1988   1.0000   1
1395.422   0.9158   0.1896   1.0000   1
1395.452   0.9404   0.1921   1.0000   1
1395.481   1.0475   0.1998   1.0000   1
1395.511   0.9614   0.1930   1.0000   1
1395.541   0.8329   0.1821   1.0000   1
1395.571   0.8672   0.1854   1.0000   1
1395.601   1.0826   0.2033   1.0000   1
1395.631   1.0456   0.2002   1.0000   1
1395.660   1.0073   0.1967   1.0000   1
1395.690   0.8939   0.1863   1.0000   1
1395.720   1.0332   0.1993   1.0000   1
1395.750   1.0938   0.2034   1.0000   1
1395.780   1.0120   0.1974   1.0000   1
1395.810   1.1465   0.2074   1.0000   1
1395.840   0.9571   0.1915   1.0000   1
1395.869   1.0089   0.1965   1.0000   1
1395.899   0.9432   0.1915   1.0000   1
1395.929   1.0426   0.1999   1.0000   1
1395.959   1.0920   0.2034   1.0000   1
1395.989   1.0367   0.1993   1.0000   1
1396.019   0.9044   0.1878   1.0000   1
1396.049   0.8903   0.1868   1.0000   1
1396.078   0.8866   0.1868   1.0000   1
1396.108   1.0607   0.2003   1.0000   1
1396.138   1.0039   0.1960   1.0000   1
1396.168   0.9380   0.1914   1.0000   1
1396.198   0.9674   0.1930   1.0000   1
1396.228   1.1455   0.2080   1.0000   1
1396.258   1.0754   0.2024   1.0000   1
1396.287   1.1145   0.2053   1.0000   1
1396.317   0.9995   0.1956   1.0000   1
1396.347   0.9447   0.1913   1.0000   1
1396.377   1.0694   0.2018   1.0000   1
1396.407   0.9634   0.1927   1.0000   1
1396.437   1.0390   0.1992   1.0000   1
1396.466   0.9697   0.1933   1.0000   1
1396.496   1.1011   0.2042   1.0000   1
1396.526   0.8933   0.1869   1.0000   1
1396.556   1.0342   0.1987   1.0000   1
1396.586   1.1631   0.2084   1.0000   1
1396.616   0.9816   0.1942   1.0000   1
1396.646   0.9730   0.1938   1.0000   1
1396.675   0.9788   0.1945   1.0000   1
1396.705   0.9501   0.1915   1.0000   1
1396.735   0.9778   0.1942   1.0000   1
1396.765   0.9552   0.1921   1.0000   1
1396.795   0.9330   0.1893   1.0000   1
1396.825   1.1240   0.2046   1.0000   1
1396.855   1.2478   0.2149   1.0000   1
1396.884   1.0183   0.1951   1.0000   1
1396.914   1.0187   0.1978   1.0000   1
1396.944   0.9614   0.1934   1.0000   1
1396.974   0.9577   0.1927   1.0000   1
1397.004   1.0207   0.1983   1.0000   1
1397.034   0.9918   0.1952   1.0000   1
1397.064   0.9867   0.1933   1.0000   1
1397.093   1.0487   0.2005   1.0000   1
1397.123   1.0852   0.2028   1.0000   1
1397.153   1.0171   0.1979   1.0000   1
1397.183   0.8966   0.1869   1.0000   1
1397.213   0.9232   0.1893   1.0000   1
1397.243   1.0446   0.1999   1.0000   1
1397.272   1.0336   0.1983   1.0000   1
1397.302   0.9301   0.1905   1.0000   1
1397.332   0.9541   0.1926   1.0000   1
1397.362   1.0576   0.2004   1.0000   1
1397.392   1.2168   0.2128   1.0000   1
1397.422   0.8540   0.1833   1.0000   1
1397.452   0.9696   0.1936   1.0000   1
1399.034   1.0064   0.1973   1.0000   1
1399.064   0.9715   0.1935   1.0000   0
1399.093   1.0070   0.1974   1.0000   0
1399.123   0.8026   0.1803   1.0000   0
1399.153   0.6920   0.1683   1.0000   0
1399.183   0.6168   0.1577   1.0000   0
1399.213   0.8021   0.1797   1.0000   0
1399.243   0.6950   0.1695   1.0000   0
1399.273   0.8620   0.1833   1.0000   0
1399.302   0.8982   0.1877   1.0000   0
1399.332   1.0188   0.1986   1.0000   0
1399.362   1.0634   0.2024   1.0000   0
1399.392   1.0349   0.1999   1.0000   0
1399.422   0.9806   0.1955   1.0000   0
1399.452   0.8472   0.1821   1.0000   0
1399.481   1.0302   0.1999   1.0000   1
1399.511   1.0591   0.2016   1.0000   1
1399.541   1.0309   0.1995   1.0000   1
1399.571   1.0477   0.1999   1.0000   1
1399.601   0.9192   0.1907   1.0000   1
1399.631   1.0300   0.1993   1.0000   1
1399.661   0.9396   0.1926   1.0000   1
1399.690   0.9421   0.1930   1.0000   1
1399.720   0.9756   0.1966   1.0000   1
1399.750   1.0447   0.2028   1.0000   1
1399.780   1.0001   0.2006   1.0000   1
1399.810   1.0104   0.2028   1.0000   1
1399.840   0.9769   0.1991   1.0000   1
1399.870   1.1120   0.2088   1.0000   1
1399.899   0.8729   0.1879   1.0000   1
1399.929   0.8828   0.1901   1.0000   1
1399.959   0.9321   0.1949   1.0000   1
1399.989   0.9001   0.1910   1.0000   1
1400.019   1.2734   0.2212   1.0000   1
1400.049   1.0598   0.2059   1.0000   1
1400.079   1.0275   0.2012   1.0000   1
1400.108   1.0605   0.2033   1.0000   1
1400.138   1.1059   0.2062   1.0000   1
1400.168   1.0320   0.2005   1.0000   1
1400.198   0.8297   0.1830   1.0000   1
1400.228   1.1518   0.2089   1.0000   1
1400.258   1.0636   0.2024   1.0000   1
1400.287   1.1516   0.2074   1.0000   1
1400.317   1.0515   0.2016   1.0000   1
1400.347   0.9677   0.1947   1.0000   1
1400.377   1.0915   0.2044   1.0000   1
1400.407   1.0642   0.2032   1.0000   1
1400.437   0.9479   0.1938   1.0000   1
1400.467   0.9144   0.1904   1.0000   1
1400.496   1.0930   0.2043   1.0000   1
1400.526   1.0286   0.1997   1.0000   1
1400.556   0.9578   0.1950   1.0000   1
1400.586   1.1627   0.2109   1.0000   1
1400.616   0.8965   0.1892   1.0000   1
1400.646   1.1008   0.2061   1.0000   1
1400.676   1.2536   0.2175   1.0000   1
1400.705   0.9655   0.1952   1.0000   1
1400.735   0.9595   0.1944   1.0000   1
1400.765   1.0364   0.2018   1.0000   1
1400.795   0.8264   0.1821   1.0000   1
1400.825   0.9955   0.1982   1.0000   1
1400.855   0.9799   0.1968   1.0000   1
1400.885   1.2693   0.2193   1.0000   1
1400.914   1.1134   0.2079   1.0000   1
1400.944   0.9099   0.1902   1.0000   1
1400.974   0.9834   0.1965   1.0000   1
1401.004   0.9250   0.1925   1.0000   1
1401.034   1.0341   0.1995   1.0000   1
1401.064   1.0579   0.2033   1.0000   1
1401.093   1.0826   0.2042   1.0000   1
1401.123   1.0358   0.2021   1.0000   1
1401.153   1.1554   0.2122   1.0000   1
1401.183   0.9531   0.1972   1.0000   1
1401.213   1.0886   0.2085   1.0000   1
1401.243   1.0638   0.2057   1.0000   1
1401.273   1.0867   0.2081   1.0000   1
1401.302   1.1649   0.2129   1.0000   1
1401.332   0.9890   0.1996   1.0000   1
1401.362   0.8488   0.1879   1.0000   1
1401.392   0.9739   0.2003   1.0000   1
1401.422   0.9022   0.1935   1.0000   1
1401.452   1.0138   0.2053   1.0000   1
1401.482   0.9288   0.1961   1.0000   1
1401.511   0.8889   0.1937   1.0000   1
1401.541   0.9220   0.1948   1.0000   1
1401.571   0.8333   0.1853   1.0000   1
1401.601   1.0754   0.2068   1.0000   1
1401.631   0.8414   0.1856   1.0000   1
1401.661   1.0625   0.2049   1.0000   1
1401.691   1.0629   0.2046   1.0000   1
1401.720   1.1381   0.2122   1.0000   1
1401.750   1.2985   0.2238   1.0000   1
1401.780   0.9428   0.1956   1.0000   1
1401.810   0.9264   0.1921   1.0000   1
1401.840   0.9899   0.1970   1.0000   1
1401.870   0.8176   0.1821   1.0000   1
1401.899   1.0940   0.2066   1.0000   1
1401.929   0.9655   0.1959   1.0000   1
1401.959   0.9006   0.1903   1.0000   1
1401.989   1.0144   0.1992   1.0000   1
1402.019   0.9874   0.1952   1.0000   1
1402.049   0.9368   0.1936   1.0000   1
1402.079   0.9417   0.1939   1.0000   1
1402.108   0.8955   0.1877   1.0000   1
1402.138   0.8588   0.1858   1.0000   1
1402.168   0.9274   0.1927   1.0000   1
1402.198   1.0670   0.2062   1.0000   1
1402.228   1.1906   0.2161   1.0000   1
1402.258   0.9654   0.1984   1.0000   1
1402.288   0.8710   0.1896   1.0000   1
1402.317   0.9312   0.1950   1.0000   1
1402.347   0.8692   0.1890   1.0000   1
1402.377   0.9787   0.1991   0.9999   1
1402.407   0.9841   0.1992   0.9997   1
1402.437   1.0427   0.2057   0.9993   1
1402.467   0.8947   0.1916   0.9982   1
1402.497   1.1213   0.2112   0.9961   1
1402.526   1.0105   0.2013   0.9920   1
1402.556   1.0066   0.2021   0.9850   1
1402.586   0.8218   0.1842   0.9740   1
1402.616   0.8750   0.1899   0.9587   1
1402.646   0.9008   0.1918   0.9395   1
1402.676   0.8627   0.1868   0.9183   1
1402.705   0.9786   0.1976   0.8984   1
1402.735   0.9224   0.1921   0.8830   1
1402.765   0.8861   0.1890   0.8747   1
1402.795   0.9431   0.1940   0.8745   1
1402.825   0.9174   0.1928   0.8809   1
1402.855   0.8875   0.1892   0.8907   1
1402.885   0.9537   0.1955   0.8991   1
1402.914   0.8106   0.1823   0.9018   1
1402.944   0.8761   0.1883   0.8963   1
1402.974   0.8996   0.1906   0.8824   1
1403.004   0.7800   0.1776   0.8620   1
1403.034   0.7845   0.1800   0.8387   1
1403.064   0.9523   0.1926   0.8172   1
1403.094   0.8250   0.1839   0.8012   1
1403.123   0.9118   0.1923   0.7938   1
1403.153   0.7653   0.1780   0.7962   1
1403.183   0.7930   0.1819   0.8085   1
1403.213   0.6992   0.1720   0.8290   1
1403.243   0.7757   0.1774   0.8553   1
1403.273   1.0259   0.2002   0.8840   1
1403.303   0.8505   0.1860   0.9120   1
1403.332   1.0307   0.2030   0.9362   1
1403.362   1.0775   0.2071   0.9520   1
1403.392   0.9583   0.1987   0.9510   1
1403.422   1.0805   0.2094   0.9325   1
1403.452   1.0278   0.2053   0.9221   1
1403.482   0.9403   0.1968   0.9425   1
1403.511   1.0311   0.2044   0.9742   1
1403.541   1.0420   0.2064   0.9928   1
1403.571   0.8517   0.1896   0.9986   1
1403.601   1.0220   0.2058   0.9997   1
1403.631   0.9177   0.1950   0.9999   1
1403.661   0.8517   0.1899   1.0000   1
1403.691   0.9806   0.2014   1.0000   1
1403.720   1.0804   0.2095   1.0000   1
1403.750   0.8787   0.1920   1.0000   1
1403.780   1.0689   0.2073   1.0000   1
1403.810   0.9265   0.1939   1.0000   1
1403.840   0.9552   0.1965   1.0000   1
1403.870   1.1044   0.2086   1.0000   1
1403.900   1.0806   0.2066   1.0000   1
1403.929   0.9795   0.1989   1.0000   1
1403.959   0.9556   0.1957   1.0000   1
1403.989   0.9736   0.1975   1.0000   1
1404.019   0.8973   0.1912   1.0000   1
1404.049   1.0257   0.2024   1.0000   1
1404.079   1.0657   0.2054   1.0000   1
1404.109   0.9461   0.1942   1.0000   1
1404.138   1.1391   0.2114   1.0000   1
1404.168   0.9846   0.1967   1.0000   1
1404.198   1.0494   0.2038   1.0000   1
1404.228   0.8791   0.1900   1.0000   1
1404.258   1.0633   0.2048   1.0000   1
1404.288   0.9945   0.1985   1.0000   1
1404.317   1.0390   0.2039   1.0000   1
1404.347   0.9593   0.1960   1.0000   1
1404.377   0.9501   0.1951   1.0000   1
1404.407   1.0057   0.2008   1.0000   1
1404.437   0.9453   0.1951   1.0000   1
1404.467   0.9228   0.1932   1.0000   1
1404.497   1.2151   0.2170   1.0000   1
1404.526   1.0622   0.2057   1.0000   1
1404.556   1.1821   0.2155   1.0000   1
1404.586   0.7575   0.1780   1.0000   1
1404.616   1.2043   0.2165   1.0000   1
1404.646   0.9485   0.1942   1.0000   1
1404.676   1.0302   0.2010   1.0000   1
1404.706   1.0896   0.2075   1.0000   1
1404.735   0.9291   0.1938   1.0000   1
1404.765   1.1563   0.2131   1.0000   1
1404.795   1.0423   0.2031   1.0000   1
1404.825   1.0302   0.2033   1.0000   1
1404.855   1.0894   0.2063   1.0000   1
1404.885   1.1264   0.2111   1.0000   1
1404.915   1.0347   0.2038   1.0000   1
1404.944   1.0115   0.2018   1.0000   1
1404.974   1.0546   0.2043   1.0000   1
1405.004   0.9567   0.1964   1.0000   1
1405.034   0.9363   0.1949   1.0000   1
1405.064   0.9979   0.2004   1.0000   1
1405.094   0.8275   0.1864   1.0000   1
1405.123   0.9338   0.1941   1.0000   1
1405.153   0.9569   0.1960   1.0000   1
1405.183   0.9615   0.1979   1.0000   1
1405.213   0.9385   0.1951   1.0000   1
1405.243   1.1111   0.2101   1.0000   1
1405.273   1.0584   0.2062   1.0000   1
1405.303   0.9608   0.1984   1.0000   1
1405.332   1.0094   0.2014   1.0000   1
1405.362   0.9252   0.1936   1.0000   1
1405.392   0.9845   0.1997   1.0000   1
1405.422   1.0123   0.2020   1.0000   1
1405.452   1.1684   0.2141   1.0000   1
1405.482   1.0979   0.2092   1.0000   1
1405.512   1.1526   0.2142   1.0000   1
1405.541   1.0803   0.2052   1.0000   1
1405.571   1.0873   0.2086   1.0000   1
1405.601   1.0157   0.2025   1.0000   1
1405.631   1.1220   0.2103   1.0000   1
1405.661   0.9329   0.1959   1.0000   1
1405.691   1.0105   0.2019   1.0000   1
1405.720   1.0339   0.2044   1.0000   1
1405.750   0.8992   0.1926   1.0000   1
1405.780   0.9277   0.1937   1.0000   1
1405.810   0.8785   0.1912   1.0000   1
1405.840   1.0139   0.2023   1.0000   1
1405.870   1.0693   0.2069   1.0000   1
1405.900   1.0879   0.2088   1.0000   1
1405.929   0.9700   0.1987   1.0000   1
1405.959   1.0499   0.2055   1.0000   1
1405.989   0.9703   0.1989   1.0000   1
1406.019   1.0121   0.2028   1.0000   1
1406.049   0.9491   0.1973   1.0000   1
1406.079   0.9101   0.1919   1.0000   1
1406.109   1.0520   0.2059   1.0000   1
1406.138   1.0160   0.2003   1.0000   1
1406.168   0.8873   0.1904   1.0000   1
1406.198   1.0006   0.2016   1.0000   1
1406.228   1.0541   0.2064   1.0000   1
1406.258   1.1041   0.2086   1.0000   1
1406.288   1.0228   0.2033   1.0000   1
1406.318   1.0601   0.2061   1.0000   1
1406.347   1.0022   0.2001   1.0000   1
1406.377   0.9976   0.2011   1.0000   1
1406.407   0.8605   0.1903   1.0000   1
1406.437   1.1333   0.2125   1.0000   1
1406.467   0.9543   0.1972   1.0000   1
1406.497   1.0148   0.2025   1.0000   1
