# Best-fit normalized data and profile from VoigtFit
# column 1 : Wavelength
# column 2 : Normalized flux
# column 3 : Normalized error
# column 4 : Best-fit profile
# column 5 : Pixel mask, 1=included, 0=excluded
1390.799   1.0215   0.0527   1.0000   1
1390.829   1.0530   0.0528   1.0000   1
1390.859   0.9845   0.0508   1.0000   1
1390.889   0.9817   0.0507   1.0000   1
1390.919   0.9687   0.0505   1.0000   1
1390.949   0.9566   0.0502   1.0000   1
1390.978   1.0305   0.0521   1.0000   1
1391.008   0.9954   0.0513   1.0000   1
1391.038   0.9581   0.0504   1.0000   1
1391.068   1.0234   0.0521   1.0000   1
1391.098   0.9778   0.0510   1.0000   1
1391.128   1.0370   0.0525   1.0000   1
1391.158   1.0422   0.0526   1.0000   1
1391.188   0.9690   0.0509   1.0000   1
1391.218   1.0185   0.0521   1.0000   1
1391.248   0.9915   0.0515   1.0000   1
1391.277   0.9823   0.0513   1.0000   1
1391.307   0.9805   0.0513   1.0000   1
1391.337   1.0029   0.0519   1.0000   1
1391.367   0.9909   0.0516   1.0000   1
1391.397   0.9999   0.0519   1.0000   1
1391.427   0.9950   0.0518   1.0000   1
1391.457   1.0503   0.0533   1.0000   1
1391.487   0.9925   0.0519   1.0000   1
1391.517   0.9738   0.0515   1.0000   1
1391.547   0.9806   0.0517   1.0000   1
1391.577   1.0218   0.0529   1.0000   1
1391.606   1.0279   0.0531   1.0000   1
1391.636   0.9648   0.0516   0.9999   1
1391.666   0.9809   0.0522   0.9998   1
1391.696   0.9972   0.0531   0.9993   1
1391.726   1.0263   0.0542   0.9980   1
1391.756   0.9922   0.0536   0.9950   1
1391.786   0.9535   0.0527   0.9891   1
1391.816   0.9486   0.0526   0.9788   1
1391.846   0.9814   0.0535   0.9636   1
1391.876   0.9421   0.0525   0.9447   1
1391.905   0.9060   0.0520   0.9255   1
1391.935   0.9224   0.0526   0.9109   1
1391.965   0.8907   0.0521   0.9053   1
1391.995   0.8681   0.0517   0.9104   1
1392.025   0.9459   0.0536   0.9247   1
1392.055   1.0078   0.0552   0.9438   1
1392.085   0.9305   0.0534   0.9629   1
1392.115   0.9249   0.0531   0.9782   1
1392.145   0.9938   0.0547   0.9887   1
1392.175   1.0009   0.0549   0.9948   1
1392.205   1.0046   0.0552   0.9979   1
1392.234   0.9701   0.0543   0.9992   1
1392.264   1.0474   0.0564   0.9997   1
1392.294   1.0193   0.0558   0.9999   1
1392.324   1.0057   0.0555   1.0000   1
1392.354   0.9809   0.0550   1.0000   1
1392.384   1.0043   0.0556   0.9999   1
1392.414   1.0155   0.0560   0.9997   1
1392.444   0.9856   0.0553   0.9988   1
1392.474   1.0130   0.0561   0.9949   1
1392.504   0.9782   0.0553   0.9823   1
1392.533   0.9611   0.0549   0.9500   1
1392.563   0.9051   0.0533   0.8847   1
1392.593   0.8070   0.0506   0.7821   1
1392.623   0.6358   0.0453   0.6595   1
1392.653   0.5690   0.0432   0.5538   1
1392.683   0.5388   0.0421   0.5030   1
1392.713   0.5390   0.0421   0.5259   1
1392.743   0.5892   0.0440   0.6136   1
1392.773   0.7403   0.0490   0.7329   1
1392.803   0.8890   0.0535   0.8393   1
1392.832   0.8775   0.0531   0.8962   1
1392.862   0.8560   0.0526   0.8854   1
1392.892   0.8010   0.0510   0.8124   1
1392.922   0.7294   0.0489   0.7122   1
1392.952   0.7143   0.0484   0.6406   1
1392.982   0.6236   0.0456   0.6411   1
1393.012   0.7269   0.0490   0.7139   1
1393.042   0.8565   0.0530   0.8180   1
1393.072   0.9290   0.0551   0.9055   1
1393.102   0.9758   0.0564   0.9550   1
1393.132   1.0043   0.0572   0.9728   1
1393.161   0.9896   0.0568   0.9737   1
1393.191   0.9472   0.0559   0.9677   1
1393.221   0.8670   0.0539   0.9586   1
1393.251   0.8851   0.0548   0.9455   1
1393.281   0.9125   0.0560   0.9182   1
1393.311   0.8993   0.0557   0.8563   1
1393.341   0.8611   0.0543   0.7774   1
1393.371   0.8720   0.0549   0.7569   1
1393.401   0.8668   0.0545   0.8033   1
1393.431   0.9223   0.0559   0.8424   1
1393.460   0.9217   0.0560   0.8480   1
1393.490   0.8483   0.0540   0.8402   1
1393.520   0.8041   0.0528   0.8317   1
1393.550   0.8423   0.0539   0.8252   1
1393.580   0.7488   0.0506   0.8192   1
1393.610   0.7679   0.0511   0.8073   1
1393.640   0.7152   0.0491   0.7762   1
1393.670   0.7376   0.0498   0.7130   1
1393.700   0.6743   0.0477   0.6246   1
1393.730   0.5567   0.0436   0.5487   1
1393.760   0.5152   0.0421   0.5326   1
1393.789   0.5892   0.0448   0.5942   1
1393.819   0.6986   0.0485   0.7043   1
1393.849   0.8351   0.0527   0.8126   1
1393.879   0.9145   0.0550   0.8872   1
1393.909   0.9423   0.0559   0.9277   1
1393.939   0.9538   0.0563   0.9485   1
1393.969   0.9768   0.0572   0.9610   1
1393.999   0.9696   0.0571   0.9702   1
1394.029   0.9492   0.0566   0.9775   1
1394.059   1.0092   0.0585   0.9833   1
1394.089   0.9845   0.0576   0.9879   1
1394.118   0.9894   0.0577   0.9914   1
1394.148   1.0316   0.0587   0.9940   1
1394.178   1.0375   0.0591   0.9959   1
1394.208   1.0015   0.0581   0.9973   1
1394.238   0.9522   0.0568   0.9982   1
1394.268   1.0222   0.0588   0.9988   1
1394.298   0.9614   0.0569   0.9993   1
1394.328   1.0343   0.0590   0.9995   1
1394.358   0.9942   0.0575   0.9997   1
1394.388   1.0033   0.0576   0.9998   1
1394.417   1.0141   0.0579   0.9999   1
1394.447   0.9869   0.0572   0.9999   1
1394.477   1.0332   0.0585   1.0000   1
1394.507   1.0139   0.0581   1.0000   1
1394.537   1.0135   0.0580   1.0000   1
1394.567   1.0205   0.0583   1.0000   1
1394.597   1.0116   0.0581   1.0000   1
1394.627   0.9703   0.0570   1.0000   1
1394.657   1.0098   0.0582   1.0000   1
1394.687   1.0488   0.0593   1.0000   1
1394.716   1.0395   0.0591   1.0000   1
1394.746   1.0376   0.0592   1.0000   1
1394.776   0.9436   0.0567   1.0000   1
1394.806   1.0038   0.0585   1.0000   1
1394.836   1.0097   0.0587   1.0000   1
1394.866   0.9739   0.0578   1.0000   1
1394.896   0.9776   0.0579   1.0000   1
1394.926   0.9889   0.0584   1.0000   1
1394.956   1.0087   0.0590   1.0000   1
1394.986   0.9774   0.0582   1.0000   1
1395.016   0.9517   0.0575   1.0000   1
1395.045   1.0171   0.0594   1.0000   1
1395.075   1.0367   0.0599   1.0000   1
1395.105   1.0098   0.0592   1.0000   1
1395.135   1.0090   0.0592   1.0000   1
1395.165   0.9680   0.0581   1.0000   1
1395.195   0.9520   0.0576   1.0000   1
1395.225   0.9929   0.0588   1.0000   1
1395.255   1.0278   0.0598   1.0000   1
1395.285   1.0038   0.0591   1.0000   1
1395.315   0.9956   0.0588   1.0000   1
1395.344   0.9596   0.0578   1.0000   1
1395.374   1.0196   0.0594   1.0000   1
1395.404   0.9923   0.0586   1.0000   1
1395.434   1.0336   0.0597   1.0000   1
1395.464   1.0031   0.0589   1.0000   1
1395.494   1.0122   0.0592   1.0000   1
1395.524   0.9288   0.0569   1.0000   1
1395.554   1.0495   0.0602   1.0000   1
1395.584   0.9869   0.0585   1.0000   1
1395.614   0.9951   0.0587   1.0000   1
1395.644   1.0922   0.0615   1.0000   1
1395.673   1.0207   0.0595   1.0000   1
1395.703   0.9962   0.0589   1.0000   1
1395.733   1.0531   0.0605   1.0000   1
1395.763   0.9760   0.0584   1.0000   1
1395.793   1.0324   0.0600   1.0000   1
1395.823   1.0153   0.0596   1.0000   1
1395.853   1.0226   0.0599   1.0000   1
1395.883   0.9926   0.0591   1.0000   1
1395.913   1.0401   0.0605   1.0000   1
1395.943   1.0122   0.0598   1.0000   1
1395.973   0.9702   0.0587   1.0000   1
1396.002   0.9666   0.0587   1.0000   1
1396.032   1.0308   0.0605   1.0000   1
1396.062   0.9894   0.0595   1.0000   1
1396.092   0.9761   0.0591   1.0000   1
1396.122   1.0095   0.0602   1.0000   1
1396.152   0.9665   0.0591   1.0000   1
1396.182   0.9748   0.0594   1.0000   1
1396.212   0.9519   0.0587   1.0000   1
1396.242   1.0098   0.0605   1.0000   1
1396.272   1.0198   0.0608   1.0000   1
1396.301   0.9665   0.0593   1.0000   1
1396.331   0.9721   0.0595   1.0000   1
1396.361   0.9936   0.0601   1.0000   1
1396.391   0.9532   0.0590   1.0000   1
1396.421   0.9980   0.0603   1.0000   1
1396.451   0.9883   0.0599   1.0000   1
1396.481   0.9842   0.0598   1.0000   1
1396.511   1.0267   0.0610   1.0000   1
1399.800   0.9822   0.0607   1.0000   1
1399.830   0.9746   0.0605   1.0000   1
1399.860   1.0376   0.0623   1.0000   1
1399.890   1.0006   0.0613   1.0000   1
1399.920   0.9463   0.0597   1.0000   1
1399.950   1.0013   0.0614   1.0000   1
1399.980   0.9614   0.0608   1.0000   1
1400.010   0.9325   0.0596   1.0000   1
1400.040   1.0165   0.0624   1.0000   1
1400.069   0.9907   0.0618   1.0000   1
1400.099   1.0127   0.0623   1.0000   1
1400.129   1.0260   0.0626   1.0000   1
1400.159   1.0178   0.0625   1.0000   1
1400.189   0.9953   0.0622   1.0000   1
1400.219   0.9559   0.0610   1.0000   1
1400.249   0.9746   0.0616   1.0000   1
1400.279   1.0441   0.0641   1.0000   1
1400.309   1.0353   0.0632   1.0000   1
1400.339   1.0251   0.0628   1.0000   1
1400.368   0.9612   0.0610   1.0000   1
1400.398   0.9830   0.0614   1.0000   1
1400.428   0.9948   0.0613   1.0000   1
1400.458   1.0196   0.0618   1.0000   1
1400.488   0.9830   0.0607   1.0000   1
1400.518   1.0365   0.0623   1.0000   1
1400.548   1.0151   0.0617   1.0000   1
1400.578   1.0544   0.0628   1.0000   1
1400.608   1.0171   0.0617   1.0000   1
1400.638   1.0214   0.0618   1.0000   1
1400.667   1.0310   0.0621   0.9999   1
1400.697   1.0302   0.0621   0.9997   1
1400.727   0.9918   0.0610   0.9992   1
1400.757   1.0417   0.0624   0.9981   1
1400.787   0.9840   0.0608   0.9956   1
1400.817   1.0320   0.0622   0.9912   1
1400.847   1.0129   0.0616   0.9844   1
1400.877   0.9973   0.0612   0.9753   1
1400.907   0.9882   0.0608   0.9654   1
1400.937   0.9667   0.0603   0.9569   1
1400.967   0.9635   0.0602   0.9524   1
1400.996   0.9945   0.0611   0.9533   1
1401.026   0.9595   0.0601   0.9593   1
1401.056   0.9575   0.0600   0.9685   1
1401.086   0.9553   0.0600   0.9784   1
1401.116   0.9937   0.0611   0.9868   1
1401.146   1.0486   0.0627   0.9929   1
1401.176   1.0765   0.0635   0.9966   1
1401.206   1.0148   0.0617   0.9986   1
1401.236   0.9601   0.0601   0.9995   1
1401.266   1.0375   0.0623   0.9998   1
1401.295   1.0702   0.0633   0.9999   1
1401.325   0.9859   0.0609   1.0000   1
1401.355   1.0185   0.0618   1.0000   1
1401.385   0.8940   0.0582   1.0000   1
1401.415   1.0264   0.0620   0.9999   1
1401.445   1.0041   0.0614   0.9997   1
1401.475   0.9925   0.0610   0.9986   1
1401.505   0.9531   0.0600   0.9947   1
1401.535   0.9224   0.0592   0.9836   1
1401.565   0.9344   0.0601   0.9578   1
1401.595   0.8834   0.0589   0.9105   1
1401.624   0.8626   0.0582   0.8431   1
1401.654   0.7194   0.0534   0.7713   1
1401.684   0.7019   0.0527   0.7206   1
1401.714   0.7069   0.0527   0.7123   1
1401.744   0.6881   0.0522   0.7500   1
1401.774   0.8359   0.0572   0.8171   1
1401.804   0.8850   0.0589   0.8866   1
1401.834   0.9408   0.0607   0.9346   1
1401.864   0.9677   0.0614   0.9481   1
1401.894   0.9313   0.0602   0.9243   1
1401.923   0.8433   0.0573   0.8728   1
1401.953   0.7871   0.0555   0.8192   1
1401.983   0.7555   0.0540   0.7951   1
1402.013   0.7587   0.0539   0.8165   1
1402.043   0.8249   0.0560   0.8699   1
1402.073   0.9181   0.0589   0.9263   1
1402.103   0.9062   0.0585   0.9648   1
1402.133   0.9188   0.0589   0.9826   1
1402.163   0.9899   0.0609   0.9873   1
1402.193   1.0226   0.0619   0.9859   1
1402.223   1.0072   0.0616   0.9822   1
1402.252   1.0016   0.0616   0.9773   1
1402.282   0.9827   0.0612   0.9711   1
1402.312   0.9506   0.0606   0.9629   1
1402.342   0.9340   0.0600   0.9524   1
1402.372   0.9280   0.0598   0.9428   1
1402.402   0.9817   0.0614   0.9370   1
1402.432   0.9920   0.0617   0.9328   1
1402.462   0.9819   0.0613   0.9276   1
1402.492   0.9764   0.0611   0.9216   1
1402.522   0.9557   0.0606   0.9162   1
1402.551   0.9147   0.0594   0.9120   1
1402.581   0.9202   0.0595   0.9088   1
1402.611   0.9053   0.0589   0.9050   1
1402.641   0.8775   0.0578   0.8957   1
1402.671   0.8386   0.0564   0.8722   1
1402.701   0.8456   0.0565   0.8284   1
1402.731   0.7715   0.0541   0.7728   1
1402.761   0.7141   0.0522   0.7331   1
1402.791   0.7230   0.0525   0.7372   1
1402.821   0.7776   0.0542   0.7868   1
1402.850   0.8755   0.0574   0.8555   1
1402.880   0.9126   0.0585   0.9134   1
1402.910   0.9411   0.0594   0.9490   1
1402.940   0.9677   0.0602   0.9669   1
1402.970   1.0216   0.0617   0.9761   1
1403.000   0.9630   0.0600   0.9818   1
1403.030   1.0359   0.0621   0.9861   1
1403.060   0.9745   0.0603   0.9896   1
1403.090   0.9737   0.0602   0.9923   1
1403.120   1.0046   0.0612   0.9944   1
1403.150   0.9214   0.0587   0.9961   1
1403.179   0.9390   0.0591   0.9973   1
1403.209   0.9774   0.0603   0.9981   1
1403.239   1.0027   0.0610   0.9988   1
1403.269   1.0415   0.0621   0.9992   1
1403.299   0.9552   0.0596   0.9995   1
1403.329   1.1010   0.0637   0.9997   1
1403.359   0.9530   0.0595   0.9998   1
1403.389   1.0559   0.0624   0.9999   1
1403.419   1.0204   0.0615   0.9999   1
1403.449   1.0255   0.0616   1.0000   1
1403.478   0.9806   0.0603   1.0000   1
1403.508   0.9619   0.0597   1.0000   1
1403.538   0.9992   0.0608   1.0000   1
1403.568   1.0372   0.0619   1.0000   1
1403.598   1.0048   0.0609   1.0000   1
1403.628   0.9757   0.0600   1.0000   1
1403.658   1.0338   0.0617   1.0000   1
1403.688   0.9822   0.0602   1.0000   1
1403.718   1.0489   0.0621   1.0000   1
1403.748   1.0194   0.0613   1.0000   1
1403.778   1.0212   0.0613   1.0000   1
1403.807   1.0625   0.0624   1.0000   1
1403.837   0.9360   0.0588   1.0000   1
1403.867   1.0069   0.0608   1.0000   1
1403.897   0.9909   0.0604   1.0000   1
1403.927   0.9629   0.0596   1.0000   1
1403.957   1.0006   0.0606   1.0000   1
1403.987   1.0581   0.0622   1.0000   1
1404.017   0.9958   0.0605   1.0000   1
1404.047   1.0065   0.0608   1.0000   1
1404.077   0.9813   0.0600   1.0000   1
1404.107   1.0428   0.0618   1.0000   1
1404.136   1.0243   0.0612   1.0000   1
1404.166   1.0574   0.0622   1.0000   1
1404.196   0.9462   0.0590   1.0000   1
1404.226   0.9547   0.0592   1.0000   1
1404.256   0.9920   0.0603   1.0000   1
1404.286   0.9961   0.0604   1.0000   1
1404.316   0.9986   0.0605   1.0000   1
1404.346   1.0569   0.0621   1.0000   1
1404.376   0.9922   0.0602   1.0000   1
1404.406   0.9897   0.0602   1.0000   1
1404.435   1.0024   0.0605   1.0000   1
1404.465   0.9838   0.0600   1.0000   1
1404.495   0.9669   0.0596   1.0000   1
1404.525   1.0169   0.0610   1.0000   1
1404.555   1.0337   0.0614   1.0000   1
1404.585   0.9682   0.0596   1.0000   1
1404.615   0.9640   0.0595   1.0000   1
1404.645   0.9232   0.0583   1.0000   1
1404.675   0.9819   0.0600   1.0000   1
1404.705   1.0345   0.0615   1.0000   1
1404.734   0.9880   0.0602   1.0000   1
1404.764   0.9571   0.0593   1.0000   1
1404.794   1.0207   0.0611   1.0000   1
1404.824   0.9501   0.0591   1.0000   1
1404.854   0.9717   0.0598   1.0000   1
1404.884   0.9585   0.0594   1.0000   1
1404.914   1.0141   0.0610   1.0000   1
1404.944   0.9938   0.0604   1.0000   1
1404.974   1.0342   0.0615   1.0000   1
1405.004   1.0627   0.0624   1.0000   1
1405.034   1.0250   0.0613   1.0000   1
1405.063   0.9674   0.0596   1.0000   1
1405.093   0.9760   0.0600   1.0000   1
1405.123   1.0057   0.0608   1.0000   1
1405.153   1.0304   0.0615   1.0000   1
1405.183   0.9896   0.0604   1.0000   1
1405.213   0.9408   0.0590   1.0000   1
1405.243   1.0247   0.0613   1.0000   1
1405.273   1.0296   0.0615   1.0000   1
1405.303   1.0283   0.0615   1.0000   1
1405.333   1.0288   0.0615   1.0000   1
1405.362   0.9614   0.0596   1.0000   1
1405.392   1.0085   0.0609   1.0000   1
1405.422   1.0539   0.0622   1.0000   1
1405.452   1.0118   0.0611   1.0000   1
1405.482   0.9959   0.0605   1.0000   1
1405.512   1.0093   0.0609   1.0000   1
1405.542   1.0490   0.0620   1.0000   1
